use std::marker::PhantomData;

use cubecl_core::{frontend::F32, Runtime};

use crate::tensor::Tensor;

use super::{
    cmma::matmul_cmma,
    test_utils::{assert_equals, create_empty, range_tensor},
};

pub fn test_matmul_cmma_1<R: Runtime>(device: &R::Device) {
    let m = 64;
    let k = 64;
    let n = 64;

    let tensor_1 = range_tensor::<R>(m, k, device);
    let tensor_2 = range_tensor::<R>(k, n, device);
    let out = Tensor {
        handle: create_empty::<R>(m, n, device),
        shape: vec![m, n],
        strides: vec![n, 1],
        elem: PhantomData,
    };

    let out = matmul_cmma::<R, F32>(tensor_1, tensor_2, out, device);

    let expected = &[
        5462016.0,
        5464032.0,
        5466048.0,
        5468064.0,
        5470080.0,
        5472096.0,
        5474112.0,
        5476128.0,
        5478144.0,
        5480160.0,
        5482176.0,
        5484192.0,
        5486208.0,
        5488224.0,
        5490240.0,
        5492256.0,
        5494272.0,
        5496288.0,
        5498304.0,
        5500320.0,
        5502336.0,
        5504352.0,
        5506368.0,
        5508384.0,
        5510400.0,
        5512416.0,
        5514432.0,
        5516448.0,
        5518464.0,
        5520480.0,
        5522496.0,
        5524512.0,
        5526528.0,
        5528544.0,
        5530560.0,
        5532576.0,
        5534592.0,
        5536608.0,
        5538624.0,
        5540640.0,
        5542656.0,
        5544672.0,
        5546688.0,
        5548704.0,
        5550720.0,
        5552736.0,
        5554752.0,
        5556768.0,
        5558784.0,
        5560800.0,
        5562816.0,
        5564832.0,
        5566848.0,
        5568864.0,
        5570880.0,
        5572896.0,
        5574912.0,
        5576928.0,
        5578944.0,
        5580960.0,
        5582976.0,
        5584992.0,
        5587008.0,
        5589024.0,
        13719552.0,
        13725664.0,
        13731776.0,
        13737888.0,
        13744000.0,
        13750112.0,
        13756224.0,
        13762336.0,
        13768448.0,
        13774560.0,
        13780672.0,
        13786784.0,
        13792896.0,
        13799008.0,
        13805120.0,
        13811232.0,
        13817344.0,
        13823456.0,
        13829568.0,
        13835680.0,
        13841792.0,
        13847904.0,
        13854016.0,
        13860128.0,
        13866240.0,
        13872352.0,
        13878464.0,
        13884576.0,
        13890688.0,
        13896800.0,
        13902912.0,
        13909024.0,
        13915136.0,
        13921248.0,
        13927360.0,
        13933472.0,
        13939584.0,
        13945696.0,
        13951808.0,
        13957920.0,
        13964032.0,
        13970144.0,
        13976256.0,
        13982368.0,
        13988480.0,
        13994592.0,
        14000704.0,
        14006816.0,
        14012928.0,
        14019040.0,
        14025152.0,
        14031264.0,
        14037376.0,
        14043488.0,
        14049600.0,
        14055712.0,
        14061824.0,
        14067936.0,
        14074048.0,
        14080160.0,
        14086272.0,
        14092384.0,
        14098496.0,
        14104608.0,
        21977088.0,
        21987296.0,
        21997504.0,
        22007712.0,
        22017920.0,
        22028128.0,
        22038336.0,
        22048544.0,
        22058752.0,
        22068960.0,
        22079168.0,
        22089376.0,
        22099584.0,
        22109792.0,
        22120000.0,
        22130208.0,
        22140416.0,
        22150624.0,
        22160832.0,
        22171040.0,
        22181248.0,
        22191456.0,
        22201664.0,
        22211872.0,
        22222080.0,
        22232288.0,
        22242496.0,
        22252704.0,
        22262912.0,
        22273120.0,
        22283328.0,
        22293536.0,
        22303744.0,
        22313952.0,
        22324160.0,
        22334368.0,
        22344576.0,
        22354784.0,
        22364992.0,
        22375200.0,
        22385408.0,
        22395616.0,
        22405824.0,
        22416032.0,
        22426240.0,
        22436448.0,
        22446656.0,
        22456864.0,
        22467072.0,
        22477280.0,
        22487488.0,
        22497696.0,
        22507904.0,
        22518112.0,
        22528320.0,
        22538528.0,
        22548736.0,
        22558944.0,
        22569152.0,
        22579360.0,
        22589568.0,
        22599776.0,
        22609984.0,
        22620192.0,
        30234624.0,
        30248928.0,
        30263232.0,
        30277536.0,
        30291840.0,
        30306144.0,
        30320448.0,
        30334752.0,
        30349056.0,
        30363360.0,
        30377664.0,
        30391968.0,
        30406272.0,
        30420576.0,
        30434880.0,
        30449184.0,
        30463488.0,
        30477792.0,
        30492096.0,
        30506400.0,
        30520704.0,
        30535008.0,
        30549312.0,
        30563616.0,
        30577920.0,
        30592224.0,
        30606528.0,
        30620832.0,
        30635136.0,
        30649440.0,
        30663744.0,
        30678048.0,
        30692352.0,
        30706656.0,
        30720960.0,
        30735264.0,
        30749568.0,
        30763872.0,
        30778176.0,
        30792480.0,
        30806784.0,
        30821088.0,
        30835392.0,
        30849696.0,
        30864000.0,
        30878304.0,
        30892608.0,
        30906912.0,
        30921216.0,
        30935520.0,
        30949824.0,
        30964128.0,
        30978432.0,
        30992736.0,
        31007040.0,
        31021344.0,
        31035648.0,
        31049952.0,
        31064256.0,
        31078560.0,
        31092864.0,
        31107168.0,
        31121472.0,
        31135776.0,
        38492160.0,
        38510560.0,
        38528960.0,
        38547360.0,
        38565760.0,
        38584160.0,
        38602560.0,
        38620960.0,
        38639360.0,
        38657760.0,
        38676160.0,
        38694560.0,
        38712960.0,
        38731360.0,
        38749760.0,
        38768160.0,
        38786560.0,
        38804960.0,
        38823360.0,
        38841760.0,
        38860160.0,
        38878560.0,
        38896960.0,
        38915360.0,
        38933760.0,
        38952160.0,
        38970560.0,
        38988960.0,
        39007360.0,
        39025760.0,
        39044160.0,
        39062560.0,
        39080960.0,
        39099360.0,
        39117760.0,
        39136160.0,
        39154560.0,
        39172960.0,
        39191360.0,
        39209760.0,
        39228160.0,
        39246560.0,
        39264960.0,
        39283360.0,
        39301760.0,
        39320160.0,
        39338560.0,
        39356960.0,
        39375360.0,
        39393760.0,
        39412160.0,
        39430560.0,
        39448960.0,
        39467360.0,
        39485760.0,
        39504160.0,
        39522560.0,
        39540960.0,
        39559360.0,
        39577760.0,
        39596160.0,
        39614560.0,
        39632960.0,
        39651360.0,
        46749696.0,
        46772190.0,
        46794690.0,
        46817184.0,
        46839680.0,
        46862176.0,
        46884670.0,
        46907170.0,
        46929664.0,
        46952160.0,
        46974656.0,
        46997150.0,
        47019650.0,
        47042144.0,
        47064640.0,
        47087136.0,
        47109630.0,
        47132130.0,
        47154624.0,
        47177120.0,
        47199616.0,
        47222110.0,
        47244610.0,
        47267104.0,
        47289600.0,
        47312096.0,
        47334590.0,
        47357090.0,
        47379584.0,
        47402080.0,
        47424576.0,
        47447070.0,
        47469570.0,
        47492064.0,
        47514560.0,
        47537056.0,
        47559550.0,
        47582050.0,
        47604544.0,
        47627040.0,
        47649536.0,
        47672030.0,
        47694530.0,
        47717024.0,
        47739520.0,
        47762016.0,
        47784510.0,
        47807010.0,
        47829504.0,
        47852000.0,
        47874496.0,
        47896990.0,
        47919490.0,
        47941984.0,
        47964480.0,
        47986976.0,
        48009470.0,
        48031970.0,
        48054464.0,
        48076960.0,
        48099456.0,
        48121950.0,
        48144450.0,
        48166944.0,
        55007230.0,
        55033824.0,
        55060416.0,
        55087010.0,
        55113600.0,
        55140190.0,
        55166784.0,
        55193376.0,
        55219970.0,
        55246560.0,
        55273150.0,
        55299744.0,
        55326336.0,
        55352930.0,
        55379520.0,
        55406110.0,
        55432704.0,
        55459296.0,
        55485890.0,
        55512480.0,
        55539070.0,
        55565664.0,
        55592256.0,
        55618850.0,
        55645440.0,
        55672030.0,
        55698624.0,
        55725216.0,
        55751810.0,
        55778400.0,
        55804990.0,
        55831584.0,
        55858176.0,
        55884770.0,
        55911360.0,
        55937950.0,
        55964544.0,
        55991136.0,
        56017730.0,
        56044320.0,
        56070910.0,
        56097504.0,
        56124096.0,
        56150690.0,
        56177280.0,
        56203870.0,
        56230464.0,
        56257056.0,
        56283650.0,
        56310240.0,
        56336830.0,
        56363424.0,
        56390016.0,
        56416610.0,
        56443200.0,
        56469790.0,
        56496384.0,
        56522976.0,
        56549570.0,
        56576160.0,
        56602750.0,
        56629344.0,
        56655936.0,
        56682530.0,
        63264770.0,
        63295452.0,
        63326144.0,
        63356836.0,
        63387520.0,
        63418204.0,
        63448896.0,
        63479588.0,
        63510270.0,
        63540956.0,
        63571650.0,
        63602340.0,
        63633024.0,
        63663708.0,
        63694400.0,
        63725092.0,
        63755776.0,
        63786460.0,
        63817150.0,
        63847844.0,
        63878530.0,
        63909212.0,
        63939904.0,
        63970596.0,
        64001280.0,
        64031964.0,
        64062656.0,
        64093348.0,
        64124030.0,
        64154716.0,
        64185410.0,
        64216100.0,
        64246784.0,
        64277468.0,
        64308160.0,
        64338852.0,
        64369536.0,
        64400220.0,
        64430910.0,
        64461604.0,
        64492290.0,
        64522972.0,
        64553664.0,
        64584356.0,
        64615040.0,
        64645724.0,
        64676416.0,
        64707108.0,
        64737790.0,
        64768476.0,
        64799170.0,
        64829860.0,
        64860544.0,
        64891228.0,
        64921920.0,
        64952612.0,
        64983296.0,
        65013980.0,
        65044670.0,
        65075364.0,
        65106050.0,
        65136732.0,
        65167424.0,
        65198116.0,
        71522300.0,
        71557090.0,
        71591870.0,
        71626660.0,
        71661440.0,
        71696220.0,
        71731010.0,
        71765790.0,
        71800580.0,
        71835360.0,
        71870140.0,
        71904930.0,
        71939710.0,
        71974500.0,
        72009280.0,
        72044060.0,
        72078850.0,
        72113630.0,
        72148420.0,
        72183200.0,
        72217980.0,
        72252770.0,
        72287550.0,
        72322340.0,
        72357120.0,
        72391900.0,
        72426690.0,
        72461470.0,
        72496260.0,
        72531040.0,
        72565820.0,
        72600610.0,
        72635390.0,
        72670180.0,
        72704960.0,
        72739740.0,
        72774530.0,
        72809310.0,
        72844100.0,
        72878880.0,
        72913660.0,
        72948450.0,
        72983230.0,
        73018020.0,
        73052800.0,
        73087580.0,
        73122370.0,
        73157150.0,
        73191940.0,
        73226720.0,
        73261500.0,
        73296290.0,
        73331070.0,
        73365860.0,
        73400640.0,
        73435420.0,
        73470210.0,
        73504990.0,
        73539780.0,
        73574560.0,
        73609340.0,
        73644130.0,
        73678910.0,
        73713700.0,
        79779840.0,
        79818720.0,
        79857600.0,
        79896480.0,
        79935360.0,
        79974240.0,
        80013120.0,
        80052000.0,
        80090880.0,
        80129760.0,
        80168640.0,
        80207520.0,
        80246400.0,
        80285280.0,
        80324160.0,
        80363040.0,
        80401920.0,
        80440800.0,
        80479680.0,
        80518560.0,
        80557440.0,
        80596320.0,
        80635200.0,
        80674080.0,
        80712960.0,
        80751840.0,
        80790720.0,
        80829600.0,
        80868480.0,
        80907360.0,
        80946240.0,
        80985120.0,
        81024000.0,
        81062880.0,
        81101760.0,
        81140640.0,
        81179520.0,
        81218400.0,
        81257280.0,
        81296160.0,
        81335040.0,
        81373920.0,
        81412800.0,
        81451680.0,
        81490560.0,
        81529440.0,
        81568320.0,
        81607200.0,
        81646080.0,
        81684960.0,
        81723840.0,
        81762720.0,
        81801600.0,
        81840480.0,
        81879360.0,
        81918240.0,
        81957120.0,
        81996000.0,
        82034880.0,
        82073760.0,
        82112640.0,
        82151520.0,
        82190400.0,
        82229280.0,
        88037380.0,
        88080350.0,
        88123330.0,
        88166300.0,
        88209280.0,
        88252260.0,
        88295230.0,
        88338210.0,
        88381180.0,
        88424160.0,
        88467140.0,
        88510110.0,
        88553090.0,
        88596060.0,
        88639040.0,
        88682020.0,
        88724990.0,
        88767970.0,
        88810940.0,
        88853920.0,
        88896900.0,
        88939870.0,
        88982850.0,
        89025820.0,
        89068800.0,
        89111780.0,
        89154750.0,
        89197730.0,
        89240700.0,
        89283680.0,
        89326660.0,
        89369630.0,
        89412610.0,
        89455580.0,
        89498560.0,
        89541540.0,
        89584510.0,
        89627490.0,
        89670460.0,
        89713440.0,
        89756420.0,
        89799390.0,
        89842370.0,
        89885340.0,
        89928320.0,
        89971300.0,
        90014270.0,
        90057250.0,
        90100220.0,
        90143200.0,
        90186180.0,
        90229150.0,
        90272130.0,
        90315100.0,
        90358080.0,
        90401060.0,
        90444030.0,
        90487010.0,
        90529980.0,
        90572960.0,
        90615940.0,
        90658910.0,
        90701890.0,
        90744860.0,
        96294910.0,
        96341980.0,
        96389060.0,
        96436136.0,
        96483200.0,
        96530264.0,
        96577340.0,
        96624420.0,
        96671490.0,
        96718560.0,
        96765630.0,
        96812710.0,
        96859780.0,
        96906840.0,
        96953920.0,
        97000990.0,
        97048060.0,
        97095140.0,
        97142210.0,
        97189290.0,
        97236350.0,
        97283416.0,
        97330500.0,
        97377570.0,
        97424640.0,
        97471710.0,
        97518780.0,
        97565864.0,
        97612930.0,
        97659990.0,
        97707070.0,
        97754140.0,
        97801220.0,
        97848290.0,
        97895360.0,
        97942440.0,
        97989500.0,
        98036570.0,
        98083650.0,
        98130720.0,
        98177790.0,
        98224860.0,
        98271940.0,
        98319016.0,
        98366080.0,
        98413144.0,
        98460220.0,
        98507300.0,
        98554370.0,
        98601440.0,
        98648510.0,
        98695590.0,
        98742660.0,
        98789720.0,
        98836800.0,
        98883870.0,
        98930940.0,
        98978020.0,
        99025090.0,
        99072170.0,
        99119230.0,
        99166296.0,
        99213380.0,
        99260450.0,
        104552450.0,
        104603620.0,
        104654780.0,
        104705960.0,
        104757120.0,
        104808280.0,
        104859460.0,
        104910620.0,
        104961790.0,
        105012960.0,
        105064130.0,
        105115304.0,
        105166460.0,
        105217624.0,
        105268800.0,
        105319970.0,
        105371140.0,
        105422300.0,
        105473470.0,
        105524650.0,
        105575810.0,
        105626970.0,
        105678140.0,
        105729310.0,
        105780480.0,
        105831650.0,
        105882820.0,
        105933990.0,
        105985150.0,
        106036310.0,
        106087490.0,
        106138660.0,
        106189820.0,
        106240990.0,
        106292160.0,
        106343336.0,
        106394500.0,
        106445656.0,
        106496830.0,
        106548000.0,
        106599170.0,
        106650340.0,
        106701500.0,
        106752680.0,
        106803840.0,
        106855000.0,
        106906180.0,
        106957340.0,
        107008510.0,
        107059680.0,
        107110850.0,
        107162024.0,
        107213180.0,
        107264344.0,
        107315520.0,
        107366690.0,
        107417860.0,
        107469020.0,
        107520190.0,
        107571370.0,
        107622530.0,
        107673690.0,
        107724860.0,
        107776030.0,
        112809980.0,
        112865250.0,
        112920510.0,
        112975784.0,
        113031040.0,
        113086296.0,
        113141570.0,
        113196830.0,
        113252100.0,
        113307360.0,
        113362620.0,
        113417896.0,
        113473150.0,
        113528410.0,
        113583680.0,
        113638940.0,
        113694210.0,
        113749470.0,
        113804740.0,
        113860010.0,
        113915260.0,
        113970520.0,
        114025790.0,
        114081060.0,
        114136320.0,
        114191580.0,
        114246850.0,
        114302120.0,
        114357380.0,
        114412630.0,
        114467900.0,
        114523170.0,
        114578430.0,
        114633700.0,
        114688960.0,
        114744230.0,
        114799490.0,
        114854744.0,
        114910020.0,
        114965280.0,
        115020540.0,
        115075810.0,
        115131070.0,
        115186344.0,
        115241600.0,
        115296856.0,
        115352130.0,
        115407390.0,
        115462660.0,
        115517920.0,
        115573180.0,
        115628456.0,
        115683710.0,
        115738970.0,
        115794240.0,
        115849500.0,
        115904770.0,
        115960030.0,
        116015300.0,
        116070570.0,
        116125820.0,
        116181080.0,
        116236350.0,
        116291620.0,
        121067520.0,
        121126880.0,
        121186240.0,
        121245610.0,
        121304960.0,
        121364300.0,
        121423680.0,
        121483040.0,
        121542400.0,
        121601760.0,
        121661120.0,
        121720500.0,
        121779840.0,
        121839180.0,
        121898560.0,
        121957920.0,
        122017280.0,
        122076640.0,
        122136000.0,
        122195380.0,
        122254720.0,
        122314060.0,
        122373440.0,
        122432800.0,
        122492160.0,
        122551520.0,
        122610880.0,
        122670260.0,
        122729600.0,
        122788940.0,
        122848320.0,
        122907680.0,
        122967040.0,
        123026400.0,
        123085760.0,
        123145140.0,
        123204480.0,
        123263820.0,
        123323200.0,
        123382560.0,
        123441920.0,
        123501280.0,
        123560640.0,
        123620020.0,
        123679360.0,
        123738700.0,
        123798080.0,
        123857440.0,
        123916800.0,
        123976160.0,
        124035520.0,
        124094900.0,
        124154240.0,
        124213580.0,
        124272960.0,
        124332320.0,
        124391680.0,
        124451040.0,
        124510400.0,
        124569780.0,
        124629120.0,
        124688460.0,
        124747840.0,
        124807200.0,
        129325060.0,
        129388510.0,
        129451960.0,
        129515440.0,
        129578880.0,
        129642320.0,
        129705800.0,
        129769250.0,
        129832700.0,
        129896160.0,
        129959610.0,
        130023090.0,
        130086530.0,
        130149970.0,
        130213450.0,
        130276900.0,
        130340350.0,
        130403810.0,
        130467256.0,
        130530740.0,
        130594180.0,
        130657620.0,
        130721096.0,
        130784540.0,
        130848000.0,
        130911460.0,
        130974904.0,
        131038380.0,
        131101820.0,
        131165260.0,
        131228744.0,
        131292190.0,
        131355650.0,
        131419100.0,
        131482550.0,
        131546030.0,
        131609470.0,
        131672910.0,
        131736390.0,
        131799840.0,
        131863300.0,
        131926750.0,
        131990200.0,
        132053680.0,
        132117120.0,
        132180560.0,
        132244040.0,
        132307490.0,
        132370940.0,
        132434400.0,
        132497850.0,
        132561330.0,
        132624770.0,
        132688210.0,
        132751690.0,
        132815140.0,
        132878590.0,
        132942050.0,
        133005496.0,
        133068980.0,
        133132420.0,
        133195860.0,
        133259336.0,
        133322780.0,
        137582600.0,
        137650140.0,
        137717700.0,
        137785260.0,
        137852800.0,
        137920340.0,
        137987900.0,
        138055460.0,
        138123000.0,
        138190560.0,
        138258110.0,
        138325680.0,
        138393220.0,
        138460750.0,
        138528320.0,
        138595870.0,
        138663420.0,
        138730980.0,
        138798530.0,
        138866100.0,
        138933630.0,
        139001170.0,
        139068740.0,
        139136290.0,
        139203840.0,
        139271400.0,
        139338940.0,
        139406510.0,
        139474050.0,
        139541580.0,
        139609150.0,
        139676700.0,
        139744260.0,
        139811800.0,
        139879360.0,
        139946930.0,
        140014460.0,
        140082000.0,
        140149570.0,
        140217120.0,
        140284670.0,
        140352220.0,
        140419780.0,
        140487340.0,
        140554880.0,
        140622420.0,
        140689980.0,
        140757540.0,
        140825090.0,
        140892640.0,
        140960200.0,
        141027760.0,
        141095300.0,
        141162830.0,
        141230400.0,
        141297950.0,
        141365500.0,
        141433060.0,
        141500600.0,
        141568180.0,
        141635710.0,
        141703250.0,
        141770820.0,
        141838370.0,
        145840130.0,
        145911780.0,
        145983420.0,
        146055090.0,
        146126720.0,
        146198350.0,
        146270020.0,
        146341660.0,
        146413310.0,
        146484960.0,
        146556600.0,
        146628270.0,
        146699900.0,
        146771540.0,
        146843200.0,
        146914850.0,
        146986500.0,
        147058140.0,
        147129800.0,
        147201460.0,
        147273090.0,
        147344720.0,
        147416380.0,
        147488030.0,
        147559680.0,
        147631330.0,
        147702980.0,
        147774640.0,
        147846270.0,
        147917900.0,
        147989570.0,
        148061220.0,
        148132860.0,
        148204510.0,
        148276160.0,
        148347820.0,
        148419460.0,
        148491090.0,
        148562750.0,
        148634400.0,
        148706050.0,
        148777700.0,
        148849340.0,
        148921010.0,
        148992640.0,
        149064270.0,
        149135940.0,
        149207580.0,
        149279230.0,
        149350880.0,
        149422530.0,
        149494190.0,
        149565820.0,
        149637460.0,
        149709120.0,
        149780770.0,
        149852420.0,
        149924060.0,
        149995710.0,
        150067380.0,
        150139000.0,
        150210640.0,
        150282300.0,
        150353950.0,
        154097660.0,
        154173400.0,
        154249150.0,
        154324910.0,
        154400640.0,
        154476370.0,
        154552130.0,
        154627870.0,
        154703620.0,
        154779360.0,
        154855100.0,
        154930860.0,
        155006600.0,
        155082320.0,
        155158080.0,
        155233820.0,
        155309570.0,
        155385310.0,
        155461060.0,
        155536820.0,
        155612540.0,
        155688270.0,
        155764030.0,
        155839780.0,
        155915520.0,
        155991260.0,
        156067000.0,
        156142770.0,
        156218500.0,
        156294220.0,
        156369980.0,
        156445730.0,
        156521470.0,
        156597220.0,
        156672960.0,
        156748720.0,
        156824450.0,
        156900180.0,
        156975940.0,
        157051680.0,
        157127420.0,
        157203170.0,
        157278910.0,
        157354670.0,
        157430400.0,
        157506130.0,
        157581890.0,
        157657630.0,
        157733380.0,
        157809120.0,
        157884860.0,
        157960620.0,
        158036350.0,
        158112080.0,
        158187840.0,
        158263580.0,
        158339330.0,
        158415070.0,
        158490820.0,
        158566580.0,
        158642300.0,
        158718030.0,
        158793800.0,
        158869540.0,
        162355200.0,
        162435040.0,
        162514880.0,
        162594740.0,
        162674560.0,
        162754380.0,
        162834240.0,
        162914080.0,
        162993920.0,
        163073760.0,
        163153600.0,
        163233460.0,
        163313280.0,
        163393100.0,
        163472960.0,
        163552800.0,
        163632640.0,
        163712480.0,
        163792320.0,
        163872180.0,
        163952000.0,
        164031820.0,
        164111680.0,
        164191520.0,
        164271360.0,
        164351200.0,
        164431040.0,
        164510900.0,
        164590720.0,
        164670540.0,
        164750400.0,
        164830240.0,
        164910080.0,
        164989920.0,
        165069760.0,
        165149620.0,
        165229440.0,
        165309260.0,
        165389120.0,
        165468960.0,
        165548800.0,
        165628640.0,
        165708480.0,
        165788340.0,
        165868160.0,
        165947980.0,
        166027840.0,
        166107680.0,
        166187520.0,
        166267360.0,
        166347200.0,
        166427060.0,
        166506880.0,
        166586700.0,
        166666560.0,
        166746400.0,
        166826240.0,
        166906080.0,
        166985920.0,
        167065780.0,
        167145600.0,
        167225420.0,
        167305280.0,
        167385120.0,
        170612740.0,
        170696670.0,
        170780600.0,
        170864560.0,
        170948480.0,
        171032400.0,
        171116350.0,
        171200290.0,
        171284220.0,
        171368160.0,
        171452100.0,
        171536050.0,
        171619970.0,
        171703890.0,
        171787840.0,
        171871780.0,
        171955710.0,
        172039650.0,
        172123580.0,
        172207540.0,
        172291460.0,
        172375380.0,
        172459330.0,
        172543260.0,
        172627200.0,
        172711140.0,
        172795070.0,
        172879020.0,
        172962940.0,
        173046860.0,
        173130820.0,
        173214750.0,
        173298690.0,
        173382620.0,
        173466560.0,
        173550510.0,
        173634430.0,
        173718350.0,
        173802300.0,
        173886240.0,
        173970180.0,
        174054110.0,
        174138050.0,
        174222000.0,
        174305920.0,
        174389840.0,
        174473800.0,
        174557730.0,
        174641660.0,
        174725600.0,
        174809540.0,
        174893490.0,
        174977400.0,
        175061330.0,
        175145280.0,
        175229220.0,
        175313150.0,
        175397090.0,
        175481020.0,
        175564980.0,
        175648900.0,
        175732820.0,
        175816770.0,
        175900700.0,
        178870270.0,
        178958300.0,
        179046340.0,
        179134370.0,
        179222400.0,
        179310430.0,
        179398460.0,
        179486500.0,
        179574530.0,
        179662560.0,
        179750600.0,
        179838620.0,
        179926660.0,
        180014690.0,
        180102720.0,
        180190750.0,
        180278780.0,
        180366820.0,
        180454850.0,
        180542880.0,
        180630910.0,
        180718940.0,
        180806980.0,
        180895000.0,
        180983040.0,
        181071070.0,
        181159100.0,
        181247140.0,
        181335170.0,
        181423200.0,
        181511230.0,
        181599260.0,
        181687300.0,
        181775330.0,
        181863360.0,
        181951400.0,
        182039420.0,
        182127460.0,
        182215490.0,
        182303520.0,
        182391550.0,
        182479580.0,
        182567620.0,
        182655650.0,
        182743680.0,
        182831710.0,
        182919740.0,
        183007780.0,
        183095800.0,
        183183840.0,
        183271870.0,
        183359900.0,
        183447940.0,
        183535970.0,
        183624000.0,
        183712030.0,
        183800060.0,
        183888100.0,
        183976130.0,
        184064160.0,
        184152200.0,
        184240220.0,
        184328260.0,
        184416290.0,
        187127800.0,
        187219940.0,
        187312060.0,
        187404200.0,
        187496320.0,
        187588450.0,
        187680590.0,
        187772700.0,
        187864830.0,
        187956960.0,
        188049070.0,
        188141220.0,
        188233340.0,
        188325470.0,
        188417600.0,
        188509730.0,
        188601860.0,
        188693980.0,
        188786110.0,
        188878240.0,
        188970370.0,
        189062500.0,
        189154640.0,
        189246750.0,
        189338880.0,
        189431000.0,
        189523120.0,
        189615260.0,
        189707400.0,
        189799520.0,
        189891650.0,
        189983780.0,
        190075900.0,
        190168030.0,
        190260160.0,
        190352290.0,
        190444420.0,
        190536540.0,
        190628690.0,
        190720800.0,
        190812930.0,
        190905060.0,
        190997170.0,
        191089310.0,
        191181440.0,
        191273570.0,
        191365700.0,
        191457820.0,
        191549950.0,
        191642080.0,
        191734200.0,
        191826340.0,
        191918460.0,
        192010600.0,
        192102740.0,
        192194850.0,
        192286980.0,
        192379100.0,
        192471220.0,
        192563360.0,
        192655490.0,
        192747620.0,
        192839740.0,
        192931870.0,
        195385340.0,
        195481570.0,
        195577800.0,
        195674030.0,
        195770240.0,
        195866450.0,
        195962700.0,
        196058910.0,
        196155140.0,
        196251360.0,
        196347570.0,
        196443820.0,
        196540030.0,
        196636240.0,
        196732480.0,
        196828700.0,
        196924930.0,
        197021150.0,
        197117380.0,
        197213620.0,
        197309820.0,
        197406030.0,
        197502290.0,
        197598500.0,
        197694720.0,
        197790940.0,
        197887150.0,
        197983410.0,
        198079620.0,
        198175820.0,
        198272060.0,
        198368290.0,
        198464510.0,
        198560740.0,
        198656960.0,
        198753200.0,
        198849400.0,
        198945620.0,
        199041870.0,
        199138080.0,
        199234300.0,
        199330530.0,
        199426740.0,
        199522990.0,
        199619200.0,
        199715410.0,
        199811650.0,
        199907870.0,
        200004100.0,
        200100320.0,
        200196540.0,
        200292780.0,
        200389000.0,
        200485200.0,
        200581460.0,
        200677660.0,
        200773890.0,
        200870110.0,
        200966320.0,
        201062580.0,
        201158780.0,
        201254990.0,
        201351230.0,
        201447460.0,
        203642880.0,
        203743200.0,
        203843520.0,
        203943860.0,
        204044160.0,
        204144460.0,
        204244820.0,
        204345120.0,
        204445440.0,
        204545760.0,
        204646060.0,
        204746420.0,
        204846720.0,
        204947020.0,
        205047360.0,
        205147680.0,
        205248000.0,
        205348320.0,
        205448640.0,
        205548980.0,
        205649280.0,
        205749580.0,
        205849940.0,
        205950240.0,
        206050560.0,
        206150880.0,
        206251180.0,
        206351540.0,
        206451840.0,
        206552140.0,
        206652480.0,
        206752800.0,
        206853120.0,
        206953440.0,
        207053760.0,
        207154100.0,
        207254400.0,
        207354700.0,
        207455060.0,
        207555360.0,
        207655680.0,
        207756000.0,
        207856300.0,
        207956660.0,
        208056960.0,
        208157260.0,
        208257600.0,
        208357920.0,
        208458240.0,
        208558560.0,
        208658880.0,
        208759220.0,
        208859520.0,
        208959820.0,
        209060180.0,
        209160480.0,
        209260800.0,
        209361120.0,
        209461420.0,
        209561780.0,
        209662080.0,
        209762380.0,
        209862720.0,
        209963040.0,
        211900420.0,
        212004830.0,
        212109250.0,
        212213680.0,
        212318080.0,
        212422480.0,
        212526930.0,
        212631330.0,
        212735740.0,
        212840160.0,
        212944560.0,
        213049010.0,
        213153400.0,
        213257810.0,
        213362240.0,
        213466660.0,
        213571070.0,
        213675490.0,
        213779900.0,
        213884340.0,
        213988740.0,
        214093140.0,
        214197580.0,
        214301980.0,
        214406400.0,
        214510820.0,
        214615220.0,
        214719660.0,
        214824060.0,
        214928460.0,
        215032900.0,
        215137310.0,
        215241730.0,
        215346140.0,
        215450560.0,
        215554990.0,
        215659400.0,
        215763790.0,
        215868240.0,
        215972640.0,
        216077060.0,
        216181470.0,
        216285870.0,
        216390320.0,
        216494720.0,
        216599120.0,
        216703550.0,
        216807970.0,
        216912380.0,
        217016800.0,
        217121220.0,
        217225650.0,
        217330050.0,
        217434450.0,
        217538900.0,
        217643300.0,
        217747710.0,
        217852130.0,
        217956530.0,
        218060980.0,
        218165380.0,
        218269780.0,
        218374200.0,
        218478620.0,
        220157950.0,
        220266460.0,
        220374980.0,
        220483500.0,
        220592000.0,
        220700500.0,
        220809040.0,
        220917540.0,
        221026050.0,
        221134560.0,
        221243060.0,
        221351600.0,
        221460100.0,
        221568590.0,
        221677120.0,
        221785630.0,
        221894140.0,
        222002660.0,
        222111170.0,
        222219700.0,
        222328200.0,
        222436690.0,
        222545230.0,
        222653730.0,
        222762240.0,
        222870750.0,
        222979250.0,
        223087790.0,
        223196290.0,
        223304780.0,
        223413310.0,
        223521820.0,
        223630340.0,
        223738850.0,
        223847360.0,
        223955890.0,
        224064380.0,
        224172880.0,
        224281420.0,
        224389920.0,
        224498430.0,
        224606940.0,
        224715440.0,
        224823980.0,
        224932480.0,
        225040980.0,
        225149500.0,
        225258020.0,
        225366530.0,
        225475040.0,
        225583550.0,
        225692080.0,
        225800580.0,
        225909070.0,
        226017620.0,
        226126110.0,
        226234620.0,
        226343140.0,
        226451630.0,
        226560180.0,
        226668670.0,
        226777170.0,
        226885700.0,
        226994200.0,
        228415490.0,
        228528100.0,
        228640700.0,
        228753330.0,
        228865920.0,
        228978510.0,
        229091150.0,
        229203740.0,
        229316350.0,
        229428960.0,
        229541550.0,
        229654190.0,
        229766780.0,
        229879380.0,
        229992000.0,
        230104600.0,
        230217220.0,
        230329820.0,
        230442430.0,
        230555060.0,
        230667650.0,
        230780240.0,
        230892880.0,
        231005470.0,
        231118080.0,
        231230690.0,
        231343280.0,
        231455920.0,
        231568510.0,
        231681100.0,
        231793730.0,
        231906340.0,
        232018940.0,
        232131550.0,
        232244160.0,
        232356780.0,
        232469380.0,
        232581970.0,
        232694610.0,
        232807200.0,
        232919800.0,
        233032420.0,
        233145010.0,
        233257650.0,
        233370240.0,
        233482830.0,
        233595460.0,
        233708060.0,
        233820670.0,
        233933280.0,
        234045890.0,
        234158510.0,
        234271100.0,
        234383700.0,
        234496340.0,
        234608930.0,
        234721540.0,
        234834140.0,
        234946740.0,
        235059380.0,
        235171970.0,
        235284560.0,
        235397180.0,
        235509800.0,
        236673020.0,
        236789730.0,
        236906430.0,
        237023150.0,
        237139840.0,
        237256530.0,
        237373260.0,
        237489950.0,
        237606660.0,
        237723360.0,
        237840050.0,
        237956780.0,
        238073470.0,
        238190160.0,
        238306880.0,
        238423580.0,
        238540290.0,
        238657000.0,
        238773700.0,
        238890420.0,
        239007100.0,
        239123790.0,
        239240530.0,
        239357220.0,
        239473920.0,
        239590620.0,
        239707310.0,
        239824050.0,
        239940740.0,
        240057420.0,
        240174140.0,
        240290850.0,
        240407550.0,
        240524260.0,
        240640960.0,
        240757680.0,
        240874370.0,
        240991060.0,
        241107800.0,
        241224480.0,
        241341180.0,
        241457890.0,
        241574560.0,
        241691310.0,
        241808000.0,
        241924690.0,
        242041400.0,
        242158110.0,
        242274820.0,
        242391520.0,
        242508220.0,
        242624940.0,
        242741630.0,
        242858320.0,
        242975070.0,
        243091740.0,
        243208450.0,
        243325150.0,
        243441820.0,
        243558580.0,
        243675260.0,
        243791950.0,
        243908670.0,
        244025380.0,
        244930560.0,
        245051360.0,
        245172160.0,
        245292980.0,
        245413760.0,
        245534540.0,
        245655400.0,
        245776160.0,
        245896960.0,
        246017760.0,
        246138530.0,
        246259380.0,
        246380160.0,
        246500940.0,
        246621760.0,
        246742560.0,
        246863360.0,
        246984160.0,
        247104960.0,
        247225780.0,
        247346560.0,
        247467340.0,
        247588200.0,
        247708960.0,
        247829760.0,
        247950560.0,
        248071330.0,
        248192180.0,
        248312960.0,
        248433740.0,
        248554560.0,
        248675360.0,
        248796160.0,
        248916960.0,
        249037760.0,
        249158580.0,
        249279360.0,
        249400140.0,
        249521000.0,
        249641760.0,
        249762560.0,
        249883360.0,
        250004130.0,
        250124980.0,
        250245760.0,
        250366540.0,
        250487360.0,
        250608160.0,
        250728960.0,
        250849760.0,
        250970560.0,
        251091380.0,
        251212160.0,
        251332940.0,
        251453800.0,
        251574560.0,
        251695360.0,
        251816160.0,
        251936930.0,
        252057780.0,
        252178560.0,
        252299340.0,
        252420160.0,
        252540960.0,
        253188100.0,
        253313010.0,
        253437890.0,
        253562800.0,
        253687680.0,
        253812560.0,
        253937500.0,
        254062350.0,
        254187260.0,
        254312180.0,
        254437020.0,
        254561970.0,
        254686850.0,
        254811730.0,
        254936640.0,
        255061520.0,
        255186430.0,
        255311340.0,
        255436220.0,
        255561140.0,
        255686020.0,
        255810900.0,
        255935840.0,
        256060690.0,
        256185600.0,
        256310510.0,
        256435360.0,
        256560300.0,
        256685180.0,
        256810060.0,
        256934980.0,
        257059860.0,
        257184770.0,
        257309680.0,
        257434560.0,
        257559470.0,
        257684350.0,
        257809230.0,
        257934180.0,
        258059020.0,
        258183940.0,
        258308850.0,
        258433700.0,
        258558640.0,
        258683540.0,
        258808400.0,
        258933310.0,
        259058190.0,
        259183100.0,
        259308020.0,
        259432900.0,
        259557810.0,
        259682670.0,
        259807570.0,
        259932510.0,
        260057360.0,
        260182270.0,
        260307180.0,
        260432030.0,
        260556980.0,
        260681870.0,
        260806740.0,
        260931650.0,
        261056530.0,
        261445630.0,
        261574640.0,
        261703620.0,
        261832620.0,
        261961580.0,
        262090580.0,
        262219620.0,
        262348560.0,
        262477570.0,
        262606580.0,
        262735520.0,
        262864560.0,
        262993550.0,
        263122510.0,
        263251520.0,
        263380500.0,
        263509500.0,
        263638510.0,
        263767490.0,
        263896500.0,
        264025460.0,
        264154450.0,
        264283490.0,
        264412430.0,
        264541440.0,
        264670450.0,
        264799400.0,
        264928430.0,
        265057420.0,
        265186380.0,
        265315400.0,
        265444370.0,
        265573380.0,
        265702380.0,
        265831360.0,
        265960370.0,
        266089330.0,
        266218320.0,
        266347360.0,
        266476300.0,
        266605310.0,
        266734320.0,
        266863260.0,
        266992300.0,
        267121300.0,
        267250260.0,
        267379260.0,
        267508240.0,
        267637250.0,
        267766260.0,
        267895230.0,
        268024240.0,
        268153200.0,
        268282190.0,
        268411230.0,
        268540160.0,
        268669200.0,
        268798200.0,
        268927140.0,
        269056200.0,
        269185150.0,
        269314100.0,
        269443140.0,
        269572100.0,
        269703170.0,
        269836300.0,
        269969340.0,
        270102460.0,
        270235520.0,
        270368580.0,
        270501730.0,
        270634750.0,
        270767870.0,
        270901000.0,
        271034020.0,
        271167170.0,
        271300220.0,
        271433280.0,
        271566400.0,
        271699460.0,
        271832580.0,
        271965700.0,
        272098750.0,
        272231870.0,
        272364930.0,
        272498000.0,
        272631140.0,
        272764160.0,
        272897280.0,
        273030400.0,
        273163420.0,
        273296580.0,
        273429630.0,
        273562700.0,
        273695800.0,
        273828860.0,
        273962000.0,
        274095100.0,
        274228160.0,
        274361280.0,
        274494340.0,
        274627400.0,
        274760540.0,
        274893570.0,
        275026700.0,
        275159800.0,
        275292830.0,
        275426000.0,
        275559040.0,
        275692100.0,
        275825200.0,
        275958270.0,
        276091400.0,
        276224500.0,
        276357570.0,
        276490700.0,
        276623740.0,
        276756800.0,
        276889950.0,
        277022980.0,
        277156100.0,
        277289200.0,
        277422240.0,
        277555400.0,
        277688450.0,
        277821500.0,
        277954620.0,
        278087680.0,
        277960700.0,
        278097920.0,
        278235070.0,
        278372300.0,
        278509440.0,
        278646600.0,
        278783840.0,
        278920960.0,
        279058180.0,
        279195400.0,
        279332500.0,
        279469760.0,
        279606900.0,
        279744060.0,
        279881280.0,
        280018430.0,
        280155650.0,
        280292860.0,
        280430000.0,
        280567230.0,
        280704400.0,
        280841540.0,
        280978780.0,
        281115900.0,
        281253120.0,
        281390340.0,
        281527460.0,
        281664700.0,
        281801860.0,
        281939000.0,
        282076220.0,
        282213380.0,
        282350600.0,
        282487800.0,
        282624960.0,
        282762180.0,
        282899330.0,
        283036480.0,
        283173730.0,
        283310850.0,
        283448060.0,
        283585280.0,
        283722400.0,
        283859650.0,
        283996800.0,
        284133950.0,
        284271170.0,
        284408320.0,
        284545540.0,
        284682750.0,
        284819900.0,
        284957120.0,
        285094270.0,
        285231420.0,
        285368670.0,
        285505800.0,
        285643000.0,
        285780220.0,
        285917340.0,
        286054600.0,
        286191740.0,
        286328900.0,
        286466100.0,
        286603260.0,
        286218240.0,
        286359550.0,
        286500800.0,
        286642100.0,
        286783360.0,
        286924600.0,
        287065950.0,
        287207170.0,
        287348480.0,
        287489800.0,
        287631000.0,
        287772350.0,
        287913600.0,
        288054850.0,
        288196160.0,
        288337400.0,
        288478720.0,
        288620030.0,
        288761280.0,
        288902600.0,
        289043840.0,
        289185100.0,
        289326430.0,
        289467650.0,
        289608960.0,
        289750270.0,
        289891500.0,
        290032830.0,
        290174080.0,
        290315330.0,
        290456640.0,
        290597900.0,
        290739200.0,
        290880500.0,
        291021760.0,
        291163070.0,
        291304320.0,
        291445570.0,
        291586900.0,
        291728130.0,
        291869440.0,
        292010750.0,
        292151970.0,
        292293300.0,
        292434560.0,
        292575800.0,
        292717120.0,
        292858370.0,
        292999680.0,
        293141000.0,
        293282240.0,
        293423550.0,
        293564800.0,
        293706050.0,
        293847400.0,
        293988600.0,
        294129920.0,
        294271230.0,
        294412450.0,
        294553800.0,
        294695040.0,
        294836300.0,
        294977600.0,
        295118850.0,
        294475780.0,
        294621200.0,
        294766530.0,
        294911940.0,
        295057280.0,
        295202620.0,
        295348060.0,
        295493380.0,
        295638800.0,
        295784200.0,
        295929500.0,
        296074940.0,
        296220300.0,
        296365630.0,
        296511040.0,
        296656400.0,
        296801800.0,
        296947200.0,
        297092540.0,
        297237950.0,
        297383300.0,
        297528640.0,
        297674080.0,
        297819400.0,
        297964800.0,
        298110200.0,
        298255520.0,
        298400960.0,
        298546300.0,
        298691650.0,
        298837060.0,
        298982400.0,
        299127800.0,
        299273200.0,
        299418560.0,
        299563970.0,
        299709300.0,
        299854660.0,
        300000100.0,
        300145400.0,
        300290800.0,
        300436220.0,
        300581540.0,
        300726980.0,
        300872320.0,
        301017660.0,
        301163070.0,
        301308400.0,
        301453820.0,
        301599230.0,
        301744580.0,
        301890000.0,
        302035330.0,
        302180670.0,
        302326100.0,
        302471420.0,
        302616830.0,
        302762240.0,
        302907550.0,
        303053000.0,
        303198340.0,
        303343680.0,
        303489100.0,
        303634430.0,
        302733300.0,
        302882800.0,
        303032260.0,
        303181760.0,
        303331200.0,
        303480640.0,
        303630180.0,
        303779600.0,
        303929100.0,
        304078600.0,
        304228000.0,
        304377540.0,
        304526980.0,
        304676400.0,
        304825920.0,
        304975360.0,
        305124860.0,
        305274370.0,
        305423800.0,
        305573300.0,
        305722750.0,
        305872200.0,
        306021730.0,
        306171140.0,
        306320640.0,
        306470140.0,
        306619550.0,
        306769100.0,
        306918530.0,
        307067970.0,
        307217470.0,
        307366900.0,
        307516400.0,
        307665920.0,
        307815360.0,
        307964860.0,
        308114300.0,
        308263740.0,
        308413280.0,
        308562700.0,
        308712200.0,
        308861700.0,
        309011100.0,
        309160640.0,
        309310080.0,
        309459520.0,
        309609020.0,
        309758460.0,
        309907970.0,
        310057470.0,
        310206900.0,
        310356400.0,
        310505860.0,
        310655300.0,
        310804830.0,
        310954240.0,
        311103740.0,
        311253250.0,
        311402660.0,
        311552200.0,
        311701630.0,
        311851070.0,
        312000580.0,
        312150000.0,
        310990850.0,
        311144450.0,
        311298000.0,
        311451600.0,
        311605120.0,
        311758660.0,
        311912300.0,
        312065800.0,
        312219400.0,
        312373000.0,
        312526500.0,
        312680130.0,
        312833660.0,
        312987200.0,
        313140800.0,
        313294340.0,
        313447940.0,
        313601540.0,
        313755070.0,
        313908670.0,
        314062200.0,
        314215740.0,
        314369380.0,
        314522880.0,
        314676480.0,
        314830080.0,
        314983580.0,
        315137200.0,
        315290750.0,
        315444300.0,
        315597900.0,
        315751420.0,
        315905020.0,
        316058620.0,
        316212160.0,
        316365760.0,
        316519300.0,
        316672830.0,
        316826460.0,
        316979970.0,
        317133570.0,
        317287170.0,
        317440670.0,
        317594300.0,
        317747840.0,
        317901380.0,
        318054980.0,
        318208500.0,
        318362100.0,
        318515700.0,
        318669250.0,
        318822850.0,
        318976400.0,
        319129920.0,
        319283550.0,
        319437060.0,
        319590660.0,
        319744260.0,
        319897760.0,
        320051400.0,
        320204930.0,
        320358460.0,
        320512060.0,
        320665600.0,
        319248400.0,
        319406080.0,
        319563700.0,
        319721400.0,
        319879040.0,
        320036670.0,
        320194400.0,
        320352000.0,
        320509700.0,
        320667400.0,
        320825000.0,
        320982720.0,
        321140350.0,
        321298000.0,
        321455680.0,
        321613300.0,
        321771000.0,
        321928700.0,
        322086340.0,
        322244030.0,
        322401660.0,
        322559300.0,
        322717020.0,
        322874620.0,
        323032320.0,
        323190000.0,
        323347620.0,
        323505340.0,
        323662980.0,
        323820600.0,
        323978300.0,
        324135940.0,
        324293630.0,
        324451330.0,
        324608960.0,
        324766660.0,
        324924300.0,
        325081920.0,
        325239650.0,
        325397250.0,
        325554940.0,
        325712640.0,
        325870240.0,
        326027970.0,
        326185600.0,
        326343230.0,
        326500930.0,
        326658560.0,
        326816260.0,
        326973950.0,
        327131600.0,
        327289280.0,
        327446900.0,
        327604540.0,
        327762270.0,
        327919870.0,
        328077570.0,
        328235260.0,
        328392860.0,
        328550600.0,
        328708220.0,
        328865860.0,
        329023550.0,
        329181200.0,
        327505920.0,
        327667700.0,
        327829440.0,
        327991230.0,
        328152960.0,
        328314700.0,
        328476500.0,
        328638240.0,
        328800000.0,
        328961760.0,
        329123500.0,
        329285300.0,
        329447040.0,
        329608770.0,
        329770560.0,
        329932300.0,
        330094080.0,
        330255870.0,
        330417600.0,
        330579400.0,
        330741120.0,
        330902850.0,
        331064670.0,
        331226400.0,
        331388160.0,
        331549920.0,
        331711650.0,
        331873470.0,
        332035200.0,
        332196930.0,
        332358720.0,
        332520450.0,
        332682240.0,
        332844030.0,
        333005760.0,
        333167550.0,
        333329280.0,
        333491000.0,
        333652830.0,
        333814560.0,
        333976320.0,
        334138080.0,
        334299800.0,
        334461630.0,
        334623360.0,
        334785100.0,
        334946880.0,
        335108600.0,
        335270400.0,
        335432200.0,
        335593920.0,
        335755700.0,
        335917440.0,
        336079170.0,
        336241000.0,
        336402720.0,
        336564480.0,
        336726240.0,
        336887970.0,
        337049800.0,
        337211520.0,
        337373250.0,
        337535040.0,
        337696770.0,
        335763460.0,
        335929340.0,
        336095170.0,
        336261060.0,
        336426880.0,
        336592700.0,
        336758620.0,
        336924450.0,
        337090300.0,
        337256160.0,
        337421980.0,
        337587900.0,
        337753730.0,
        337919550.0,
        338085440.0,
        338251260.0,
        338417150.0,
        338583040.0,
        338748860.0,
        338914750.0,
        339080580.0,
        339246400.0,
        339412320.0,
        339578140.0,
        339744000.0,
        339909860.0,
        340075680.0,
        340241600.0,
        340407420.0,
        340573250.0,
        340739140.0,
        340904960.0,
        341070850.0,
        341236740.0,
        341402560.0,
        341568450.0,
        341734270.0,
        341900100.0,
        342066020.0,
        342231840.0,
        342397700.0,
        342563550.0,
        342729380.0,
        342895300.0,
        343061120.0,
        343226940.0,
        343392830.0,
        343558660.0,
        343724540.0,
        343890430.0,
        344056260.0,
        344222140.0,
        344387970.0,
        344553800.0,
        344719700.0,
        344885540.0,
        345051400.0,
        345217250.0,
        345383070.0,
        345549000.0,
        345714800.0,
        345880640.0,
        346046530.0,
        346212350.0,
        344021000.0,
        344190980.0,
        344360900.0,
        344530880.0,
        344700800.0,
        344870720.0,
        345040740.0,
        345210660.0,
        345380600.0,
        345550560.0,
        345720480.0,
        345890500.0,
        346060400.0,
        346230340.0,
        346400320.0,
        346570240.0,
        346740220.0,
        346910200.0,
        347080130.0,
        347250100.0,
        347420030.0,
        347589950.0,
        347759970.0,
        347929900.0,
        348099840.0,
        348269800.0,
        348439700.0,
        348609730.0,
        348779650.0,
        348949570.0,
        349119550.0,
        349289470.0,
        349459460.0,
        349629440.0,
        349799360.0,
        349969340.0,
        350139260.0,
        350309200.0,
        350479200.0,
        350649150.0,
        350819070.0,
        350989000.0,
        351158940.0,
        351328960.0,
        351498880.0,
        351668800.0,
        351838800.0,
        352008740.0,
        352178700.0,
        352348640.0,
        352518600.0,
        352688580.0,
        352858500.0,
        353028400.0,
        353198430.0,
        353368400.0,
        353538300.0,
        353708220.0,
        353878180.0,
        354048200.0,
        354218100.0,
        354388030.0,
        354558000.0,
        354727970.0,
        352278530.0,
        352452580.0,
        352626620.0,
        352800700.0,
        352974720.0,
        353148740.0,
        353322850.0,
        353496900.0,
        353670900.0,
        353844930.0,
        354019000.0,
        354193100.0,
        354367100.0,
        354541120.0,
        354715200.0,
        354889250.0,
        355063300.0,
        355237340.0,
        355411400.0,
        355585470.0,
        355759500.0,
        355933500.0,
        356107600.0,
        356281660.0,
        356455680.0,
        356629700.0,
        356803780.0,
        356977860.0,
        357151870.0,
        357325900.0,
        357499970.0,
        357674020.0,
        357848060.0,
        358022100.0,
        358196160.0,
        358370240.0,
        358544260.0,
        358718270.0,
        358892350.0,
        359066430.0,
        359240450.0,
        359414460.0,
        359588540.0,
        359762620.0,
        359936640.0,
        360110660.0,
        360284740.0,
        360458780.0,
        360632830.0,
        360806880.0,
        360980930.0,
        361155000.0,
        361329020.0,
        361503040.0,
        361677120.0,
        361851200.0,
        362025200.0,
        362199230.0,
        362373300.0,
        362547400.0,
        362721400.0,
        362895420.0,
        363069500.0,
        363243550.0,
        360536060.0,
        360714200.0,
        360892350.0,
        361070530.0,
        361248640.0,
        361426750.0,
        361604930.0,
        361783100.0,
        361961200.0,
        362139330.0,
        362317500.0,
        362495680.0,
        362673800.0,
        362851900.0,
        363030080.0,
        363208220.0,
        363386370.0,
        363564500.0,
        363742660.0,
        363920830.0,
        364098940.0,
        364277060.0,
        364455230.0,
        364633400.0,
        364811520.0,
        364989630.0,
        365167800.0,
        365346000.0,
        365524100.0,
        365702200.0,
        365880400.0,
        366058530.0,
        366236670.0,
        366414820.0,
        366592960.0,
        366771140.0,
        366949250.0,
        367127360.0,
        367305540.0,
        367483700.0,
        367661820.0,
        367839940.0,
        368018100.0,
        368196300.0,
        368374400.0,
        368552500.0,
        368730700.0,
        368908830.0,
        369086980.0,
        369265120.0,
        369443260.0,
        369621440.0,
        369799550.0,
        369977660.0,
        370155840.0,
        370334000.0,
        370512130.0,
        370690240.0,
        370868400.0,
        371046600.0,
        371224700.0,
        371402800.0,
        371581000.0,
        371759140.0,
        368793600.0,
        368975840.0,
        369158080.0,
        369340350.0,
        369522560.0,
        369704770.0,
        369887040.0,
        370069300.0,
        370251520.0,
        370433730.0,
        370616000.0,
        370798270.0,
        370980480.0,
        371162700.0,
        371344960.0,
        371527200.0,
        371709440.0,
        371891680.0,
        372073920.0,
        372256200.0,
        372438370.0,
        372620600.0,
        372802880.0,
        372985150.0,
        373167360.0,
        373349570.0,
        373531840.0,
        373714100.0,
        373896320.0,
        374078530.0,
        374260800.0,
        374443040.0,
        374625280.0,
        374807520.0,
        374989760.0,
        375172030.0,
        375354240.0,
        375536450.0,
        375718720.0,
        375901000.0,
        376083200.0,
        376265400.0,
        376447680.0,
        376629950.0,
        376812200.0,
        376994370.0,
        377176640.0,
        377358880.0,
        377541120.0,
        377723360.0,
        377905600.0,
        378087870.0,
        378270050.0,
        378452300.0,
        378634560.0,
        378816830.0,
        378999040.0,
        379181250.0,
        379363520.0,
        379545800.0,
        379728000.0,
        379910200.0,
        380092480.0,
        380274720.0,
        377051140.0,
        377237470.0,
        377423800.0,
        377610180.0,
        377796480.0,
        377982800.0,
        378169150.0,
        378355520.0,
        378541820.0,
        378728130.0,
        378914500.0,
        379100860.0,
        379287200.0,
        379473470.0,
        379659840.0,
        379846180.0,
        380032500.0,
        380218850.0,
        380405200.0,
        380591550.0,
        380777820.0,
        380964160.0,
        381150530.0,
        381336900.0,
        381523200.0,
        381709500.0,
        381895870.0,
        382082240.0,
        382268540.0,
        382454850.0,
        382641200.0,
        382827550.0,
        383013900.0,
        383200220.0,
        383386560.0,
        383572930.0,
        383759230.0,
        383945540.0,
        384131900.0,
        384318270.0,
        384504580.0,
        384690880.0,
        384877250.0,
        385063600.0,
        385249950.0,
        385436220.0,
        385622600.0,
        385808930.0,
        385995260.0,
        386181600.0,
        386367940.0,
        386554300.0,
        386740580.0,
        386926900.0,
        387113280.0,
        387299650.0,
        387485950.0,
        387672260.0,
        387858620.0,
        388045000.0,
        388231300.0,
        388417600.0,
        388603970.0,
        388790300.0,
        385308670.0,
        385499100.0,
        385689540.0,
        385880000.0,
        386070400.0,
        386260800.0,
        386451300.0,
        386641730.0,
        386832130.0,
        387022530.0,
        387212960.0,
        387403460.0,
        387593900.0,
        387784260.0,
        387974720.0,
        388165150.0,
        388355600.0,
        388546020.0,
        388736450.0,
        388926900.0,
        389117280.0,
        389307700.0,
        389498200.0,
        389688640.0,
        389879040.0,
        390069440.0,
        390259870.0,
        390450370.0,
        390640770.0,
        390831170.0,
        391021630.0,
        391212060.0,
        391402500.0,
        391592930.0,
        391783360.0,
        391973820.0,
        392164220.0,
        392354620.0,
        392545120.0,
        392735550.0,
        392925950.0,
        393116350.0,
        393306780.0,
        393497280.0,
        393687700.0,
        393878080.0,
        394068540.0,
        394258980.0,
        394449400.0,
        394639840.0,
        394830270.0,
        395020740.0,
        395211100.0,
        395401540.0,
        395592030.0,
        395782460.0,
        395972860.0,
        396163260.0,
        396353700.0,
        396544200.0,
        396734600.0,
        396925000.0,
        397115460.0,
        397305900.0,
        393566200.0,
        393760740.0,
        393955260.0,
        394149820.0,
        394344320.0,
        394538800.0,
        394733400.0,
        394927940.0,
        395122430.0,
        395316930.0,
        395511460.0,
        395706050.0,
        395900580.0,
        396095040.0,
        396289600.0,
        396484130.0,
        396678660.0,
        396873180.0,
        397067700.0,
        397262270.0,
        397456740.0,
        397651260.0,
        397845860.0,
        398040400.0,
        398234880.0,
        398429380.0,
        398623900.0,
        398818500.0,
        399013000.0,
        399207500.0,
        399402050.0,
        399596580.0,
        399791100.0,
        399985630.0,
        400180160.0,
        400374720.0,
        400569200.0,
        400763700.0,
        400958300.0,
        401152830.0,
        401347330.0,
        401541820.0,
        401736350.0,
        401930940.0,
        402125470.0,
        402319940.0,
        402514500.0,
        402709020.0,
        402903550.0,
        403098080.0,
        403292600.0,
        403487170.0,
        403681630.0,
        403876160.0,
        404070750.0,
        404265280.0,
        404459780.0,
        404654270.0,
        404848800.0,
        405043400.0,
        405237900.0,
        405432400.0,
        405626940.0,
        405821470.0,
        401823740.0,
        402022370.0,
        402221000.0,
        402419650.0,
        402618240.0,
        402816830.0,
        403015520.0,
        403214140.0,
        403412740.0,
        403611330.0,
        403809950.0,
        404008640.0,
        404207260.0,
        404405820.0,
        404604480.0,
        404803100.0,
        405001730.0,
        405200350.0,
        405398980.0,
        405597630.0,
        405796200.0,
        405994800.0,
        406193500.0,
        406392130.0,
        406590720.0,
        406789300.0,
        406987940.0,
        407186620.0,
        407385200.0,
        407583800.0,
        407782460.0,
        407981100.0,
        408179700.0,
        408378340.0,
        408576960.0,
        408775600.0,
        408974200.0,
        409172800.0,
        409371500.0,
        409570100.0,
        409768700.0,
        409967300.0,
        410165920.0,
        410364600.0,
        410563230.0,
        410761800.0,
        410960450.0,
        411159070.0,
        411357700.0,
        411556320.0,
        411754940.0,
        411953600.0,
        412152160.0,
        412350800.0,
        412549470.0,
        412748100.0,
        412946700.0,
        413145280.0,
        413343900.0,
        413542600.0,
        413741200.0,
        413939780.0,
        414138430.0,
        414337060.0,
        410081280.0,
        410284000.0,
        410486720.0,
        410689470.0,
        410892160.0,
        411094850.0,
        411297630.0,
        411500350.0,
        411703040.0,
        411905730.0,
        412108450.0,
        412311230.0,
        412513950.0,
        412716600.0,
        412919360.0,
        413122080.0,
        413324800.0,
        413527520.0,
        413730240.0,
        413933000.0,
        414135650.0,
        414338370.0,
        414541150.0,
        414743870.0,
        414946560.0,
        415149250.0,
        415351970.0,
        415554750.0,
        415757440.0,
        415960130.0,
        416162880.0,
        416365600.0,
        416568320.0,
        416771040.0,
        416973760.0,
        417176500.0,
        417379200.0,
        417581900.0,
        417784670.0,
        417987400.0,
        418190080.0,
        418392770.0,
        418595500.0,
        418798270.0,
        419001000.0,
        419203650.0,
        419406400.0,
        419609120.0,
        419811840.0,
        420014560.0,
        420217280.0,
        420420030.0,
        420622700.0,
        420825400.0,
        421028200.0,
        421230900.0,
        421433600.0,
        421636300.0,
        421839000.0,
        422041800.0,
        422244480.0,
        422447170.0,
        422649920.0,
        422852640.0,
        418338800.0,
        418545630.0,
        418752450.0,
        418959300.0,
        419166080.0,
        419372860.0,
        419579740.0,
        419786560.0,
        419993340.0,
        420200130.0,
        420406940.0,
        420613820.0,
        420820640.0,
        421027400.0,
        421234240.0,
        421441020.0,
        421647870.0,
        421854720.0,
        422061500.0,
        422268350.0,
        422475100.0,
        422681920.0,
        422888800.0,
        423095580.0,
        423302400.0,
        423509220.0,
        423716000.0,
        423922880.0,
        424129660.0,
        424336450.0,
        424543300.0,
        424750080.0,
        424956930.0,
        425163780.0,
        425370560.0,
        425577400.0,
        425784200.0,
        425990980.0,
        426197860.0,
        426404640.0,
        426611460.0,
        426818270.0,
        427025060.0,
        427231940.0,
        427438750.0,
        427645500.0,
        427852350.0,
        428059140.0,
        428266000.0,
        428472830.0,
        428679600.0,
        428886460.0,
        429093220.0,
        429300030.0,
        429506900.0,
        429713660.0,
        429920500.0,
        430127360.0,
        430334100.0,
        430541000.0,
        430747780.0,
        430954560.0,
        431161400.0,
        431368200.0,
        426596350.0,
        426807300.0,
        427018180.0,
        427229120.0,
        427440000.0,
        427650880.0,
        427861860.0,
        428072740.0,
        428283650.0,
        428494560.0,
        428705440.0,
        428916400.0,
        429127330.0,
        429338180.0,
        429549120.0,
        429760000.0,
        429970940.0,
        430181900.0,
        430392770.0,
        430603700.0,
        430814560.0,
        431025470.0,
        431236450.0,
        431447300.0,
        431658240.0,
        431869200.0,
        432080030.0,
        432291000.0,
        432501900.0,
        432712770.0,
        432923700.0,
        433134600.0,
        433345540.0,
        433556480.0,
        433767360.0,
        433978300.0,
        434189200.0,
        434400060.0,
        434611040.0,
        434821900.0,
        435032830.0,
        435243780.0,
        435454620.0,
        435665600.0,
        435876500.0,
        436087360.0,
        436298300.0,
        436509200.0,
        436720130.0,
        436931070.0,
        437141950.0,
        437352900.0,
        437563740.0,
        437774660.0,
        437985630.0,
        438196480.0,
        438407420.0,
        438618370.0,
        438829220.0,
        439040200.0,
        439251070.0,
        439461950.0,
        439672900.0,
        439883780.0,
        434853900.0,
        435068930.0,
        435283900.0,
        435498940.0,
        435713920.0,
        435928900.0,
        436143970.0,
        436358900.0,
        436573950.0,
        436789000.0,
        437003940.0,
        437219000.0,
        437434020.0,
        437648960.0,
        437864000.0,
        438078980.0,
        438294000.0,
        438509060.0,
        438724030.0,
        438939070.0,
        439154020.0,
        439369020.0,
        439584100.0,
        439799040.0,
        440014080.0,
        440229120.0,
        440444060.0,
        440659140.0,
        440874100.0,
        441089100.0,
        441304130.0,
        441519100.0,
        441734140.0,
        441949200.0,
        442164160.0,
        442379200.0,
        442594180.0,
        442809150.0,
        443024220.0,
        443239170.0,
        443454200.0,
        443669250.0,
        443884200.0,
        444099260.0,
        444314270.0,
        444529200.0,
        444744260.0,
        444959230.0,
        445174270.0,
        445389300.0,
        445604300.0,
        445819330.0,
        446034270.0,
        446249280.0,
        446464350.0,
        446679300.0,
        446894340.0,
        447109380.0,
        447324320.0,
        447539400.0,
        447754370.0,
        447969340.0,
        448184400.0,
        448399360.0,
        443111420.0,
        443330560.0,
        443549630.0,
        443768770.0,
        443987840.0,
        444206900.0,
        444426080.0,
        444645120.0,
        444864260.0,
        445083400.0,
        445302430.0,
        445521600.0,
        445740700.0,
        445959740.0,
        446178880.0,
        446397950.0,
        446617100.0,
        446836220.0,
        447055300.0,
        447274430.0,
        447493470.0,
        447712580.0,
        447931740.0,
        448150800.0,
        448369920.0,
        448589060.0,
        448808100.0,
        449027260.0,
        449246340.0,
        449465400.0,
        449684540.0,
        449903600.0,
        450122750.0,
        450341900.0,
        450560960.0,
        450780100.0,
        450999170.0,
        451218240.0,
        451437400.0,
        451656450.0,
        451875600.0,
        452094720.0,
        452313760.0,
        452532930.0,
        452752030.0,
        452971070.0,
        453190200.0,
        453409280.0,
        453628400.0,
        453847550.0,
        454066620.0,
        454285760.0,
        454504800.0,
        454723900.0,
        454943070.0,
        455162100.0,
        455381250.0,
        455600400.0,
        455819420.0,
        456038600.0,
        456257660.0,
        456476740.0,
        456695870.0,
        456914940.0,
        451368960.0,
        451592200.0,
        451815360.0,
        452038600.0,
        452261760.0,
        452484930.0,
        452708200.0,
        452931330.0,
        453154560.0,
        453377800.0,
        453600930.0,
        453824200.0,
        454047400.0,
        454270530.0,
        454493760.0,
        454716930.0,
        454940160.0,
        455163400.0,
        455386560.0,
        455609800.0,
        455832930.0,
        456056130.0,
        456279400.0,
        456502530.0,
        456725760.0,
        456949000.0,
        457172130.0,
        457395400.0,
        457618560.0,
        457841730.0,
        458064960.0,
        458288130.0,
        458511360.0,
        458734600.0,
        458957760.0,
        459181000.0,
        459404160.0,
        459627330.0,
        459850600.0,
        460073730.0,
        460296960.0,
        460520200.0,
        460743330.0,
        460966600.0,
        461189800.0,
        461412930.0,
        461636160.0,
        461859330.0,
        462082560.0,
        462305800.0,
        462528960.0,
        462752200.0,
        462975330.0,
        463198530.0,
        463421800.0,
        463644930.0,
        463868160.0,
        464091400.0,
        464314530.0,
        464537760.0,
        464760960.0,
        464984160.0,
        465207360.0,
        465430530.0,
        459626500.0,
        459853820.0,
        460081100.0,
        460308380.0,
        460535680.0,
        460762980.0,
        460990300.0,
        461217540.0,
        461444860.0,
        461672200.0,
        461899420.0,
        462126750.0,
        462354080.0,
        462581340.0,
        462808640.0,
        463035900.0,
        463263230.0,
        463490560.0,
        463717820.0,
        463945120.0,
        464172380.0,
        464399700.0,
        464627040.0,
        464854340.0,
        465081600.0,
        465308860.0,
        465536160.0,
        465763500.0,
        465990800.0,
        466218080.0,
        466445380.0,
        466672640.0,
        466899970.0,
        467127300.0,
        467354560.0,
        467581860.0,
        467809150.0,
        468036450.0,
        468263780.0,
        468491070.0,
        468718340.0,
        468945600.0,
        469172900.0,
        469400220.0,
        469627550.0,
        469854820.0,
        470082100.0,
        470309380.0,
        470536700.0,
        470764030.0,
        470991300.0,
        471218600.0,
        471445860.0,
        471673180.0,
        471900500.0,
        472127800.0,
        472355070.0,
        472582340.0,
        472809630.0,
        473036960.0,
        473264260.0,
        473491550.0,
        473718850.0,
        473946100.0,
        467884030.0,
        468115460.0,
        468346800.0,
        468578200.0,
        468809600.0,
        469041000.0,
        469272420.0,
        469503800.0,
        469735170.0,
        469966530.0,
        470197920.0,
        470429340.0,
        470660770.0,
        470892130.0,
        471123520.0,
        471354880.0,
        471586300.0,
        471817730.0,
        472049100.0,
        472280480.0,
        472511840.0,
        472743260.0,
        472974700.0,
        473206080.0,
        473437440.0,
        473668800.0,
        473900200.0,
        474131620.0,
        474363000.0,
        474594400.0,
        474825800.0,
        475057150.0,
        475288580.0,
        475520000.0,
        475751360.0,
        475982750.0,
        476214140.0,
        476445540.0,
        476676960.0,
        476908350.0,
        477139700.0,
        477371070.0,
        477602460.0,
        477833900.0,
        478065340.0,
        478296670.0,
        478528060.0,
        478759420.0,
        478990850.0,
        479222270.0,
        479453630.0,
        479685020.0,
        479916350.0,
        480147800.0,
        480379230.0,
        480610620.0,
        480842000.0,
        481073340.0,
        481304740.0,
        481536160.0,
        481767550.0,
        481998940.0,
        482230340.0,
        482461700.0,
        476141570.0,
        476377100.0,
        476612540.0,
        476848030.0,
        477083520.0,
        477319000.0,
        477554530.0,
        477790000.0,
        478025470.0,
        478260930.0,
        478496420.0,
        478731940.0,
        478967460.0,
        479202900.0,
        479438400.0,
        479673860.0,
        479909380.0,
        480144900.0,
        480380350.0,
        480615840.0,
        480851260.0,
        481086820.0,
        481322340.0,
        481557820.0,
        481793280.0,
        482028740.0,
        482264220.0,
        482499740.0,
        482735230.0,
        482970720.0,
        483206200.0,
        483441660.0,
        483677200.0,
        483912700.0,
        484148160.0,
        484383650.0,
        484619140.0,
        484854620.0,
        485090140.0,
        485325630.0,
        485561100.0,
        485796540.0,
        486032030.0,
        486267550.0,
        486503100.0,
        486738530.0,
        486974000.0,
        487209470.0,
        487445000.0,
        487680500.0,
        487915970.0,
        488151460.0,
        488386880.0,
        488622430.0,
        488857950.0,
        489093440.0,
        489328900.0,
        489564350.0,
        489799840.0,
        490035360.0,
        490270850.0,
        490506340.0,
        490741820.0,
        490977280.0,
        484399100.0,
        484638720.0,
        484878270.0,
        485117860.0,
        485357440.0,
        485597020.0,
        485836640.0,
        486076220.0,
        486315780.0,
        486555330.0,
        486794900.0,
        487034530.0,
        487274180.0,
        487513700.0,
        487753280.0,
        487992830.0,
        488232450.0,
        488472060.0,
        488711600.0,
        488951200.0,
        489190720.0,
        489430370.0,
        489669980.0,
        489909570.0,
        490149120.0,
        490388670.0,
        490628260.0,
        490867870.0,
        491107460.0,
        491347040.0,
        491586620.0,
        491826180.0,
        492065800.0,
        492305400.0,
        492544960.0,
        492784540.0,
        493024130.0,
        493263700.0,
        493503330.0,
        493742900.0,
        493982460.0,
        494222000.0,
        494461600.0,
        494701220.0,
        494940860.0,
        495180380.0,
        495419970.0,
        495659520.0,
        495899140.0,
        496138750.0,
        496378300.0,
        496617900.0,
        496857400.0,
        497097060.0,
        497336670.0,
        497576260.0,
        497815800.0,
        498055360.0,
        498294940.0,
        498534560.0,
        498774140.0,
        499013730.0,
        499253300.0,
        499492860.0,
        492656640.0,
        492900350.0,
        493144000.0,
        493387680.0,
        493631360.0,
        493875040.0,
        494118750.0,
        494362430.0,
        494606080.0,
        494849730.0,
        495093400.0,
        495337120.0,
        495580860.0,
        495824480.0,
        496068160.0,
        496311800.0,
        496555520.0,
        496799230.0,
        497042880.0,
        497286560.0,
        497530180.0,
        497773920.0,
        498017630.0,
        498261300.0,
        498504960.0,
        498748600.0,
        498992300.0,
        499236000.0,
        499479680.0,
        499723360.0,
        499967040.0,
        500210700.0,
        500454400.0,
        500698100.0,
        500941760.0,
        501185440.0,
        501429120.0,
        501672800.0,
        501916500.0,
        502160200.0,
        502403840.0,
        502647500.0,
        502891170.0,
        503134880.0,
        503378620.0,
        503622240.0,
        503865920.0,
        504109570.0,
        504353280.0,
        504597000.0,
        504840670.0,
        505084320.0,
        505327940.0,
        505571680.0,
        505815400.0,
        506059070.0,
        506302720.0,
        506546370.0,
        506790050.0,
        507033760.0,
        507277440.0,
        507521120.0,
        507764770.0,
        508008450.0,
        500914180.0,
        501162000.0,
        501409730.0,
        501657500.0,
        501905280.0,
        502153060.0,
        502400860.0,
        502648640.0,
        502896400.0,
        503144130.0,
        503391900.0,
        503639700.0,
        503887550.0,
        504135260.0,
        504383000.0,
        504630800.0,
        504878600.0,
        505126400.0,
        505374180.0,
        505621920.0,
        505869630.0,
        506117470.0,
        506365280.0,
        506613060.0,
        506860800.0,
        507108540.0,
        507356320.0,
        507604130.0,
        507851900.0,
        508099680.0,
        508347420.0,
        508595200.0,
        508843000.0,
        509090800.0,
        509338600.0,
        509586340.0,
        509834100.0,
        510081900.0,
        510329700.0,
        510577470.0,
        510825200.0,
        511072960.0,
        511320740.0,
        511568540.0,
        511816400.0,
        512064100.0,
        512311840.0,
        512559600.0,
        512807420.0,
        513055230.0,
        513303000.0,
        513550750.0,
        513798460.0,
        514046300.0,
        514294100.0,
        514541900.0,
        514789630.0,
        515037380.0,
        515285150.0,
        515532960.0,
        515780740.0,
        516028500.0,
        516276260.0,
        516524030.0,
        509171700.0,
        509423600.0,
        509675500.0,
        509927330.0,
        510179200.0,
        510431070.0,
        510682980.0,
        510934850.0,
        511186700.0,
        511438530.0,
        511690400.0,
        511942300.0,
        512194240.0,
        512446050.0,
        512697900.0,
        512949760.0,
        513201660.0,
        513453570.0,
        513705440.0,
        513957280.0,
        514209100.0,
        514461020.0,
        514712930.0,
        514964800.0,
        515216640.0,
        515468480.0,
        515720350.0,
        515972260.0,
        516224130.0,
        516476000.0,
        516727840.0,
        516979700.0,
        517231600.0,
        517483520.0,
        517735400.0,
        517987230.0,
        518239100.0,
        518490940.0,
        518742880.0,
        518994720.0,
        519246560.0,
        519498460.0,
        519750300.0,
        520002240.0,
        520254140.0,
        520505950.0,
        520757800.0,
        521009660.0,
        521261570.0,
        521513470.0,
        521765340.0,
        522017180.0,
        522269000.0,
        522520900.0,
        522772830.0,
        523024670.0,
        523276580.0,
        523528420.0,
        523780260.0,
        524032200.0,
        524284030.0,
        524535900.0,
        524787740.0,
        525039600.0,
        517429250.0,
        517685250.0,
        517941220.0,
        518197150.0,
        518453120.0,
        518709060.0,
        518965100.0,
        519221020.0,
        519476960.0,
        519732960.0,
        519988900.0,
        520244930.0,
        520500930.0,
        520756830.0,
        521012770.0,
        521268740.0,
        521524740.0,
        521780740.0,
        522036700.0,
        522292640.0,
        522548540.0,
        522804540.0,
        523060580.0,
        523316500.0,
        523572500.0,
        523828450.0,
        524084380.0,
        524340400.0,
        524596350.0,
        524852320.0,
        525108260.0,
        525364220.0,
        525620220.0,
        525876220.0,
        526132200.0,
        526388130.0,
        526644100.0,
        526900030.0,
        527156060.0,
        527412000.0,
        527667940.0,
        527923940.0,
        528179870.0,
        528435900.0,
        528691900.0,
        528947800.0,
        529203740.0,
        529459700.0,
        529715700.0,
        529971700.0,
        530227680.0,
        530483620.0,
        530739520.0,
        530995520.0,
        531251550.0,
        531507500.0,
        531763500.0,
        532019420.0,
        532275360.0,
        532531400.0,
        532787330.0,
        533043300.0,
        533299230.0,
        533555200.0,
        525686800.0,
        525946880.0,
        526206940.0,
        526466980.0,
        526727040.0,
        526987070.0,
        527247200.0,
        527507230.0,
        527767260.0,
        528027360.0,
        528287400.0,
        528547520.0,
        528807600.0,
        529067620.0,
        529327650.0,
        529587700.0,
        529847800.0,
        530107900.0,
        530367970.0,
        530628000.0,
        530888000.0,
        531148100.0,
        531408220.0,
        531668260.0,
        531928350.0,
        532188380.0,
        532448420.0,
        532708540.0,
        532968580.0,
        533228640.0,
        533488670.0,
        533748740.0,
        534008830.0,
        534268930.0,
        534529000.0,
        534789020.0,
        535049100.0,
        535309120.0,
        535569250.0,
        535829280.0,
        536089300.0,
        536349400.0,
        536609440.0,
        536869570.0,
        537129660.0,
        537389700.0,
        537649660.0,
        537909760.0,
        538169860.0,
        538429950.0,
        538690050.0,
        538950000.0,
        539210050.0,
        539470140.0,
        539730300.0,
        539990300.0,
        540250400.0,
        540510460.0,
        540770400.0,
        541030600.0,
        541290600.0,
        541550700.0,
        541810700.0,
        542070800.0,
    ];

    assert_equals::<R>(out.handle, expected, device);
}
